eps1   sigma3   sigma3'   sigma1   sigma1'   u       p       q
[%]    [kPa]    [kPa]     [kPa]    [kPa]     [kPa]   [kPa]   [kPa]

0.0000	799.722	299.634	800.783	300.695	500.087	299.988	1.061
0.0194	799.553	290.270	825.632	316.349	509.283	298.963	26.079
0.0474	799.216	274.236	859.345	334.366	524.980	294.279	60.130
0.0788	799.384	257.472	891.434	349.522	541.912	288.156	92.050
0.1117	799.434	239.172	922.008	361.746	560.262	280.030	122.574
0.1507	799.315	221.574	948.441	370.699	577.741	271.282	149.126
0.1923	799.265	205.503	970.453	376.691	593.762	262.566	171.188
0.2337	799.345	192.407	987.650	380.713	606.937	255.176	188.306
0.2788	799.345	181.298	1001.282	383.236	618.047	248.610	201.938
0.3236	799.275	172.357	1011.509	384.591	626.918	243.102	212.234
0.3693	799.216	165.168	1020.009	385.961	634.047	238.766	220.793
0.4157	799.275	159.496	1026.933	387.154	639.779	235.382	227.658
0.4603	799.285	154.928	1032.869	388.513	644.357	232.790	233.584
0.5126	799.226	151.203	1037.895	389.872	648.023	230.759	238.670
0.5624	799.176	148.257	1042.243	391.324	650.919	229.279	243.067
0.6112	799.196	145.968	1046.471	393.243	653.228	228.393	247.275
0.6619	799.146	144.116	1050.237	395.207	655.031	227.813	251.091
0.7140	799.146	142.748	1053.967	397.569	656.398	227.689	254.821
0.7676	799.097	141.636	1057.256	399.795	657.461	227.689	258.159
0.8196	799.077	140.816	1060.644	402.383	658.261	228.005	261.567
0.8736	799.136	140.308	1063.906	405.078	658.828	228.565	264.770
0.9242	799.116	139.944	1066.977	407.805	659.173	229.231	267.861
0.9768	799.087	139.681	1070.049	410.643	659.405	230.002	270.962
1.0258	799.077	139.570	1073.000	413.493	659.507	230.878	273.923
1.0781	799.116	139.711	1076.164	416.759	659.405	232.060	277.048
1.1292	799.116	139.802	1078.927	419.613	659.314	233.072	279.811
1.1812	799.126	140.004	1081.978	422.856	659.122	234.288	282.851
1.2322	799.116	140.288	1084.764	425.936	658.828	235.504	285.648
1.2807	799.057	140.593	1087.476	429.012	658.464	236.733	288.419
1.3306	799.116	141.119	1090.367	432.369	657.998	238.202	291.251
1.3799	799.027	141.465	1092.914	435.352	657.562	239.427	293.887
1.4337	799.037	142.001	1095.739	438.703	657.036	240.902	296.702
1.4832	799.077	142.497	1098.232	441.652	656.580	242.215	299.155
1.5338	799.057	143.115	1101.138	445.196	655.942	243.809	302.081
1.5856	798.987	143.602	1103.627	448.242	655.385	245.149	304.639
1.6352	799.037	144.250	1106.210	451.422	654.788	246.640	307.173
1.6877	799.097	145.018	1108.917	454.838	654.079	248.291	309.820
1.7363	799.027	145.556	1111.213	457.742	653.471	249.618	312.186
1.7895	798.977	146.185	1113.842	461.049	652.792	251.140	314.864
1.8412	799.037	146.872	1116.329	464.164	652.165	252.636	317.292
1.8877	799.047	147.652	1119.053	467.658	651.395	254.321	320.006
1.9391	799.027	148.321	1121.379	470.672	650.706	255.771	322.352
1.9884	798.918	148.920	1123.804	473.806	649.997	257.216	324.886
2.0382	798.928	149.649	1126.063	476.784	649.278	258.694	327.135
2.0877	799.007	150.468	1128.564	480.025	648.539	260.320	329.557
2.1400	798.997	151.187	1130.954	483.144	647.810	261.839	331.956
2.1914	798.948	151.806	1133.072	485.931	647.142	263.181	334.125
2.2456	799.077	152.654	1135.744	489.321	646.423	264.877	336.667
2.2979	798.987	153.223	1137.737	491.973	645.764	266.140	338.750
2.3479	798.968	153.973	1140.143	495.149	644.995	267.698	341.176
2.3954	798.968	154.742	1142.325	498.100	644.225	269.195	343.357
2.4488	798.918	155.442	1144.414	500.938	643.476	270.608	345.496
2.5000	798.928	156.181	1146.645	503.898	642.747	272.087	347.717
2.5516	798.977	156.940	1148.748	506.710	642.038	273.530	349.770
2.6012	798.997	157.709	1151.076	509.788	641.288	275.069	352.079
2.6522	798.948	158.348	1152.933	512.333	640.600	276.343	353.985
2.7014	798.958	159.107	1155.267	515.417	639.850	277.877	356.309
2.7498	799.007	159.856	1157.305	518.153	639.151	279.288	358.298
2.8010	799.037	160.564	1159.320	520.847	638.473	280.658	360.283
2.8529	798.987	161.254	1161.385	523.652	637.734	282.053	362.398
2.9016	798.878	161.793	1163.228	526.142	637.086	283.243	364.349
2.9534	799.037	162.701	1165.478	529.142	636.336	284.848	366.441
3.0086	799.087	163.419	1167.373	531.705	635.668	286.181	368.286
3.0577	798.918	163.989	1169.387	534.459	634.928	287.479	370.469
3.1094	798.858	164.639	1171.173	536.953	634.220	288.744	372.314
3.1595	798.997	165.406	1173.227	539.636	633.592	290.149	374.230
3.2110	798.987	166.064	1175.020	542.097	632.923	291.408	376.033
3.2607	798.908	166.694	1176.921	544.706	632.214	292.698	378.013
3.3136	798.888	167.393	1178.790	547.294	631.495	294.027	379.902
3.3647	798.878	167.990	1180.482	549.594	630.888	295.192	381.604
3.4156	798.898	168.760	1182.576	552.437	630.138	296.652	383.678
3.4671	798.918	169.458	1184.282	554.823	629.460	297.913	385.365
3.5178	798.888	170.097	1186.170	557.378	628.792	299.191	387.282
3.5686	798.888	170.775	1187.779	559.666	628.113	300.406	388.891
3.6204	798.868	171.333	1189.429	561.894	627.536	301.520	390.561
3.6737	798.948	172.101	1191.371	564.524	626.847	302.908	392.423
3.7284	799.037	172.818	1193.086	566.866	626.219	304.167	394.049
3.7788	798.928	173.357	1194.798	569.227	625.571	305.313	395.870
3.8302	798.799	173.866	1196.257	571.324	624.933	306.352	397.458
3.8786	798.958	174.683	1198.365	574.090	624.275	307.819	399.408
3.9288	799.057	175.379	1199.853	576.175	623.677	308.978	400.796
3.9806	799.057	175.997	1201.642	578.582	623.060	310.192	402.585
4.0336	798.650	176.228	1202.836	580.414	622.422	310.957	404.186
4.0827	798.888	177.054	1204.642	582.808	621.834	312.305	405.754
4.1333	798.888	177.722	1206.383	585.217	621.166	313.554	407.495
4.1858	798.888	178.279	1207.762	587.153	620.609	314.571	408.874
4.2349	798.848	178.888	1209.503	589.542	619.961	315.772	410.654
4.2922	798.858	179.404	1210.906	591.451	619.454	316.753	412.047
4.3422	798.908	180.102	1212.567	593.761	618.806	317.988	413.659
4.3965	798.948	180.719	1214.150	595.921	618.229	319.120	415.203
4.4470	798.898	181.246	1215.536	597.884	617.652	320.126	416.638
4.4953	798.888	181.864	1217.253	600.229	617.024	321.319	418.365
4.5476	798.958	182.450	1218.652	602.145	616.507	322.348	419.694
4.5992	799.087	183.207	1220.547	604.667	615.880	323.694	421.460
4.6529	799.176	183.833	1221.955	606.613	615.343	324.760	422.780
4.7039	798.789	184.013	1223.059	608.283	614.776	325.436	424.270
4.7544	798.809	184.641	1224.616	610.448	614.168	326.577	425.808
4.8024	798.908	185.287	1226.064	612.443	613.621	327.672	427.156
4.8543	798.878	185.854	1227.657	614.633	613.024	328.781	428.779
4.9046	798.868	186.341	1228.898	616.370	612.528	329.684	430.029
4.9577	798.839	186.939	1230.471	618.572	611.900	330.816	431.633
5.0093	798.819	187.425	1231.618	620.224	611.393	331.692	432.799
5.0589	798.839	187.941	1233.131	622.234	610.897	332.706	434.292
5.1141	798.858	188.518	1234.457	624.117	610.340	333.718	435.599
5.1648	798.908	189.095	1235.832	626.018	609.814	334.736	436.924
5.2196	798.908	189.672	1237.277	628.041	609.236	335.795	438.369
5.2719	798.928	190.157	1238.592	629.822	608.770	336.712	439.664
5.3240	798.928	190.785	1240.159	632.016	608.143	337.862	441.231
5.3750	798.987	191.301	1241.301	633.614	607.687	338.738	442.314
5.4255	799.037	191.816	1242.818	635.597	607.221	339.743	443.781
5.4762	798.958	192.253	1243.913	637.209	606.705	340.572	444.956
5.5296	798.848	192.660	1245.170	638.982	606.188	341.434	446.322
5.5796	798.918	193.307	1246.704	641.093	605.611	342.569	447.786
5.6294	798.977	193.843	1247.956	642.821	605.135	343.502	448.979
5.6807	798.968	194.400	1249.401	644.833	604.568	344.544	450.433
5.7326	798.839	194.767	1250.479	646.408	604.071	345.314	451.640
5.7830	798.848	195.304	1251.954	648.409	603.545	346.339	453.105
5.8351	798.839	195.790	1253.138	650.089	603.049	347.223	454.299
5.8873	798.819	196.266	1254.449	651.897	602.552	348.143	455.631
5.9414	798.819	196.813	1255.733	653.727	602.006	349.118	456.914
5.9934	798.799	197.239	1256.921	655.361	601.560	349.946	458.122
6.0453	798.819	197.836	1258.361	657.378	600.983	351.017	459.542
6.0930	798.819	198.251	1259.373	658.805	600.568	351.769	460.554
6.1463	798.848	198.828	1260.962	660.941	600.021	352.866	462.113
6.1968	798.888	199.313	1261.997	662.422	599.575	353.683	463.109
6.2462	798.928	199.788	1263.268	664.128	599.140	354.568	464.340
6.2963	798.948	200.274	1264.449	665.775	598.674	355.441	465.501
6.3472	798.938	200.689	1265.428	667.179	598.248	356.186	466.490
6.4016	798.958	201.216	1266.816	669.074	597.742	357.168	467.859
6.4511	799.007	201.680	1267.804	670.477	597.327	357.946	468.796
6.5029	798.898	202.057	1269.100	672.259	596.841	358.791	470.202
6.5493	798.769	202.374	1270.134	673.739	596.395	359.496	471.365
6.6057	798.888	202.918	1271.346	675.376	595.970	360.404	472.458
6.6604	799.007	203.534	1272.620	677.147	595.474	361.405	473.613
6.7118	798.958	203.909	1273.695	678.646	595.048	362.155	474.737
6.7677	798.789	204.277	1274.819	680.307	594.512	362.954	476.030
6.8175	798.819	204.672	1275.775	681.628	594.147	363.657	476.956
6.8677	798.799	205.199	1277.258	683.658	593.600	364.685	478.459
6.9174	798.809	205.604	1278.247	685.042	593.205	365.416	479.439
6.9712	798.779	206.040	1279.423	686.683	592.739	366.254	480.644
7.0214	798.779	206.435	1280.322	687.978	592.344	366.949	481.543
7.0725	798.739	206.810	1281.444	689.515	591.929	367.712	482.704
7.1279	798.809	207.315	1282.585	691.092	591.494	368.574	483.777
7.1786	798.848	207.750	1283.638	692.539	591.099	369.346	484.790
7.2306	798.878	208.255	1284.994	694.371	590.623	370.294	486.115
7.2802	798.878	208.650	1285.862	695.635	590.228	370.978	486.984
7.3310	798.888	209.126	1287.320	697.558	589.762	371.937	488.432
7.3800	798.898	209.531	1288.126	698.759	589.367	372.607	489.228
7.4319	798.977	210.026	1289.278	700.326	588.952	373.459	490.300
7.4845	799.017	210.491	1290.357	701.831	588.527	374.271	491.340
7.5394	798.858	210.737	1291.161	703.039	588.121	374.838	492.302
7.5892	798.809	211.163	1292.410	704.764	587.646	375.697	493.601
7.6393	798.928	211.617	1293.349	706.037	587.311	376.423	494.421
7.6923	798.948	212.082	1294.683	707.818	586.866	377.327	495.736
7.7429	798.898	212.437	1295.476	709.015	586.461	377.963	496.578
7.7942	798.848	212.752	1296.537	710.441	586.096	378.649	497.689
7.8453	798.829	213.117	1297.372	711.661	585.711	379.299	498.543
7.8973	798.799	213.472	1298.356	713.029	585.326	379.991	499.557
7.9531	798.799	213.898	1299.519	714.618	584.901	380.805	500.720
8.0045	798.799	214.242	1300.305	715.748	584.557	381.411	501.506
8.0590	798.809	214.708	1301.728	717.627	584.101	382.348	502.919
8.1113	798.848	215.092	1302.400	718.643	583.757	382.942	503.552
8.1602	798.858	215.517	1303.660	720.318	583.342	383.784	504.802
8.2097	798.928	215.951	1304.457	721.480	582.977	384.461	505.529
8.2591	798.938	216.315	1305.511	722.888	582.623	385.173	506.573
8.3099	798.948	216.771	1306.747	724.570	582.177	386.037	507.799
8.3604	798.977	217.104	1307.403	725.530	581.873	386.580	508.426
8.4118	799.077	217.619	1308.768	727.310	581.458	387.516	509.691
8.4633	798.987	217.813	1309.460	728.286	581.174	387.971	510.473
8.5150	798.868	218.059	1310.474	729.664	580.810	388.594	511.606
8.5667	798.938	218.513	1311.385	730.961	580.425	389.329	512.448
8.6212	798.938	218.908	1312.337	732.307	580.030	390.041	513.399
8.6728	798.898	219.304	1313.300	733.705	579.595	390.771	514.402
8.7240	798.888	219.597	1314.113	734.822	579.291	391.339	515.225
8.7757	798.878	220.013	1315.219	736.354	578.865	392.127	516.341
8.8252	798.839	220.297	1315.910	737.369	578.541	392.654	517.072
8.8775	798.848	220.662	1317.048	738.861	578.187	393.395	518.200
8.9302	798.848	221.046	1317.857	740.055	577.802	394.049	519.008
8.9795	798.858	221.340	1318.667	741.148	577.519	394.609	519.808
9.0300	798.918	221.784	1319.752	742.618	577.134	395.396	520.834
9.0818	798.918	222.068	1320.535	743.685	576.850	395.940	521.617
9.1290	798.908	222.453	1321.522	745.067	576.455	396.658	522.614
9.1822	798.918	222.807	1322.395	746.284	576.111	397.299	523.477
9.2316	798.997	223.221	1323.555	747.778	575.777	398.073	524.557
9.2825	798.987	223.545	1324.238	748.796	575.442	398.628	525.251
9.3341	798.878	223.770	1325.275	750.167	575.108	399.236	526.397
9.3869	798.888	224.155	1326.189	751.455	574.734	399.922	527.301
9.4353	798.878	224.459	1327.009	752.589	574.420	400.502	528.131
9.4864	798.848	224.854	1328.114	754.120	573.994	401.276	529.265
9.5384	798.829	225.128	1328.694	754.993	573.701	401.750	529.865
9.5920	798.799	225.463	1329.701	756.365	573.336	402.430	530.902
9.6442	798.809	225.787	1330.532	757.510	573.022	403.028	531.723
9.6955	798.819	226.161	1331.500	758.842	572.658	403.721	532.681
9.7469	798.839	226.465	1332.127	759.753	572.374	404.228	533.289
9.8009	798.878	226.828	1333.062	761.012	572.050	404.889	534.183
9.8530	798.938	227.242	1334.133	762.438	571.695	405.641	535.195
9.9040	798.977	227.586	1334.860	763.468	571.392	406.213	535.882
9.9536	798.987	227.910	1336.009	764.931	571.078	406.917	537.022
10.0044	798.918	228.144	1336.448	765.674	570.774	407.321	537.530
10.0572	798.948	228.528	1337.514	767.095	570.419	408.050	538.567
10.1072	798.918	228.742	1338.128	767.952	570.176	408.478	539.211
10.1553	798.918	229.076	1338.907	769.064	569.842	409.072	539.989
10.2068	798.888	229.400	1339.936	770.448	569.488	409.750	541.048
10.2599	798.898	229.674	1340.407	771.183	569.224	410.177	541.509
10.3118	798.908	230.018	1341.533	772.643	568.890	410.893	542.625
10.3600	798.878	230.231	1342.019	773.372	568.647	411.278	543.141
10.4096	798.858	230.505	1343.064	774.711	568.354	411.907	544.206
10.4617	798.839	230.789	1343.711	775.661	568.050	412.413	544.872
10.5117	798.829	231.052	1344.398	776.622	567.776	412.909	545.569
10.5632	798.848	231.437	1345.431	778.019	567.412	413.631	546.583
10.6164	798.948	231.769	1346.019	778.840	567.179	414.126	547.071
10.6664	798.958	232.113	1347.049	780.205	566.845	414.810	548.092
10.7203	798.898	232.327	1347.622	781.051	566.571	415.235	548.724
10.7761	798.928	232.691	1348.624	782.387	566.237	415.923	549.697
10.8278	798.987	233.004	1349.247	783.264	565.984	416.424	550.260
10.8777	798.968	233.267	1349.934	784.234	565.700	416.923	550.966
10.9286	798.918	233.542	1350.777	785.401	565.376	417.495	551.859
10.9808	798.908	233.744	1351.369	786.206	565.164	417.898	552.461
11.0352	798.868	234.049	1352.268	787.449	564.819	418.516	553.400
11.0877	798.839	234.272	1352.898	788.332	564.566	418.959	554.059
11.1409	798.848	234.606	1353.701	789.459	564.242	419.557	554.853
11.1917	798.839	234.809	1354.297	790.268	564.029	419.962	555.458
11.2415	798.819	235.093	1355.186	791.461	563.726	420.549	556.368
11.2926	798.868	235.457	1355.934	792.523	563.412	421.145	557.066
11.3421	798.868	235.740	1356.729	793.601	563.128	421.694	557.861
11.3946	798.968	236.123	1357.655	794.811	562.844	422.352	558.688
11.4453	799.017	236.385	1358.279	795.647	562.632	422.806	559.262
11.4954	798.898	236.570	1359.087	796.759	562.328	423.300	560.189
11.5483	798.868	236.773	1359.589	797.494	562.095	423.680	560.721
11.6003	798.958	237.197	1360.653	798.892	561.761	424.428	561.695
11.6531	798.958	237.440	1361.148	799.630	561.518	424.836	562.190
11.7071	798.888	237.623	1361.774	800.509	561.265	425.252	562.886
11.7600	798.908	237.907	1362.531	801.530	561.001	425.781	563.623
11.8082	798.938	238.179	1363.169	802.411	560.758	426.257	564.231
11.8611	798.898	238.474	1364.152	803.728	560.424	426.892	565.254
11.9152	798.908	238.646	1364.486	804.224	560.262	427.172	565.578
11.9708	798.858	238.941	1365.656	805.738	559.918	427.873	566.797
12.0238	798.839	239.154	1365.895	806.211	559.685	428.173	567.057
12.0717	798.848	239.417	1366.771	807.340	559.432	428.724	567.923
12.1219	798.888	239.760	1367.644	808.516	559.128	429.345	568.756
12.1740	798.918	240.013	1368.153	809.248	558.905	429.758	569.235
12.2269	798.987	240.447	1369.269	810.729	558.541	430.541	570.282
12.2761	798.958	240.559	1369.354	810.956	558.399	430.691	570.397
12.3272	798.839	240.754	1370.326	812.241	558.085	431.249	571.487
12.3783	798.968	241.055	1370.858	812.946	557.913	431.685	571.891
12.4303	799.027	241.398	1371.688	814.059	557.629	432.285	572.661
12.4859	798.918	241.552	1372.298	814.932	557.366	432.679	573.380
12.5381	798.888	241.745	1372.774	815.631	557.143	433.040	573.886
12.5899	798.888	242.029	1373.637	816.777	556.859	433.612	574.749
12.6365	798.878	242.231	1374.211	817.564	556.647	434.009	575.333
12.6899	798.848	242.485	1375.177	818.814	556.363	434.595	576.329
12.7471	798.858	242.677	1375.569	819.388	556.181	434.914	576.711
12.8018	798.829	242.901	1376.205	820.277	555.928	435.360	577.376
12.8559	798.789	243.175	1376.877	821.263	555.614	435.871	578.088
12.9073	798.858	243.396	1377.260	821.798	555.462	436.197	578.402
12.9587	798.908	243.740	1378.355	823.187	555.168	436.889	579.447
13.0092	798.958	243.972	1378.852	823.866	554.986	437.270	579.894
13.0590	798.968	244.255	1379.760	825.047	554.713	437.852	580.792
13.1074	798.908	244.368	1380.151	825.611	554.540	438.115	581.243
13.1569	798.928	244.661	1381.077	826.811	554.267	438.711	582.150
13.2082	798.928	244.924	1381.618	827.614	554.004	439.154	582.690
13.2589	798.898	245.107	1382.313	828.522	553.791	439.579	583.415
13.3101	798.888	245.381	1383.091	829.583	553.507	440.115	584.202
13.3610	798.898	245.543	1383.477	830.122	553.355	440.402	584.579
13.4130	798.898	245.826	1384.327	831.255	553.072	440.969	585.429
13.4662	798.888	245.988	1384.693	831.794	552.900	441.257	585.805
13.5175	798.888	246.252	1385.587	832.950	552.636	441.818	586.699
13.5679	798.888	246.454	1385.980	833.546	552.434	442.152	587.092
13.6214	798.888	246.677	1386.668	834.457	552.211	442.604	587.780
13.6725	798.898	246.910	1387.313	835.325	551.988	443.048	588.415
13.7227	798.977	247.192	1387.930	836.144	551.786	443.509	588.952
13.7739	799.077	247.524	1388.892	837.339	551.553	444.129	589.815
13.8274	799.027	247.677	1389.123	837.773	551.350	444.376	590.096
13.8800	798.898	247.801	1389.956	838.859	551.097	444.820	591.058
13.9260	798.938	247.993	1390.284	839.339	550.945	445.108	591.347
13.9798	799.027	248.305	1391.060	840.337	550.722	445.649	592.033
14.0348	798.987	248.498	1391.645	841.155	550.490	446.050	592.657
14.0851	798.918	248.621	1392.054	841.757	550.297	446.333	593.136
14.1382	798.898	248.804	1392.789	842.694	550.095	446.767	593.891
14.1879	798.868	248.905	1392.984	843.022	549.963	446.944	594.116
14.2388	798.848	249.210	1394.148	844.509	549.639	447.643	595.300
14.2883	798.839	249.321	1394.219	844.702	549.517	447.781	595.380
14.3415	798.868	249.564	1395.049	845.744	549.305	448.291	596.181
14.3902	798.868	249.797	1395.684	846.612	549.072	448.735	596.815
14.4401	798.908	249.938	1395.943	846.973	548.970	448.949	597.035
14.4901	798.948	250.271	1396.920	848.244	548.677	449.595	597.973
14.5403	798.958	250.392	1397.154	848.589	548.565	449.791	598.196
14.5911	798.948	250.676	1398.141	849.869	548.272	450.407	599.193
14.6433	798.938	250.798	1398.424	850.284	548.140	450.626	599.486
14.6972	798.918	251.011	1399.098	851.191	547.907	451.071	600.180
14.7460	798.878	251.184	1399.617	851.922	547.694	451.430	600.739
14.7982	798.878	251.336	1399.999	852.457	547.543	451.709	601.121
14.8513	798.898	251.619	1400.841	853.562	547.279	452.266	601.943
14.9030	798.888	251.720	1401.140	853.972	547.168	452.471	602.252
14.9499	798.868	251.913	1401.975	855.020	546.955	452.949	603.106
15.0016	798.848	252.065	1402.303	855.520	546.783	453.217	603.455
15.0544	798.848	252.238	1402.912	856.301	546.611	453.592	604.063
15.1065	798.829	252.430	1403.487	857.089	546.398	453.983	604.659
15.1580	798.829	252.582	1403.877	857.630	546.246	454.265	605.048
15.2102	798.789	252.735	1404.388	858.334	546.054	454.601	605.599
15.2629	798.868	252.976	1405.097	859.205	545.892	455.053	606.228
15.3153	798.888	253.219	1405.756	860.087	545.669	455.508	606.867
15.3644	798.938	253.380	1406.032	860.474	545.558	455.745	607.094
15.4162	798.888	253.584	1407.000	861.695	545.305	456.287	608.111
