eps1   sigma3   sigma3'   sigma1   sigma1'   u       p       q
[%]    [kPa]    [kPa]     [kPa]    [kPa]     [kPa]   [kPa]   [kPa]

0.0000	1000.131	500.589	1001.158	501.616	499.542	500.931	1.027
0.0152	1000.203	494.800	1018.609	513.206	505.402	500.936	18.406
0.0456	1000.141	478.799	1058.375	537.032	521.343	498.210	58.234
0.0782	1000.080	459.356	1097.632	556.907	540.725	491.873	97.551
0.1045	1000.080	439.418	1134.849	574.186	560.663	484.340	134.769
0.1371	1000.091	416.747	1174.186	590.842	583.344	474.778	174.095
0.1726	1000.091	393.539	1211.437	604.886	606.552	463.988	211.347
0.2177	1000.080	370.828	1244.900	615.647	629.253	452.434	244.820
0.2631	1000.070	349.654	1273.027	622.611	650.416	440.640	272.957
0.3049	1000.019	331.112	1295.870	626.963	668.907	429.729	295.851
0.3521	999.989	314.645	1314.460	629.117	685.344	419.469	314.471
0.3981	1000.019	300.588	1329.542	630.110	699.432	410.428	329.522
0.4451	999.948	288.452	1341.499	630.003	711.496	402.302	341.550
0.4882	1000.182	278.191	1351.474	629.483	721.992	395.288	351.292
0.5358	1000.172	269.507	1359.790	629.124	730.665	389.379	359.618
0.5813	1000.203	262.189	1366.224	628.211	738.013	384.196	366.021
0.6316	1000.141	255.813	1372.086	627.757	744.329	379.794	371.944
0.6831	1000.121	250.388	1376.844	627.111	749.733	375.962	376.723
0.7334	1000.152	245.844	1381.068	626.760	754.308	372.816	380.917
0.7806	1000.141	241.876	1384.949	626.684	758.265	370.145	384.808
0.8268	1000.121	238.506	1388.400	626.785	761.615	367.932	388.279
0.8751	1000.070	235.591	1391.699	627.219	764.480	366.134	391.629
0.9229	999.958	233.050	1394.279	627.371	766.909	364.490	394.321
0.9693	1000.030	230.915	1397.228	628.113	769.115	363.314	397.198
1.0184	999.877	229.001	1399.520	628.644	770.876	362.215	399.643
1.0724	999.979	227.402	1402.061	629.485	772.576	361.430	402.083
1.1229	999.958	225.985	1404.438	630.465	773.973	360.812	404.480
1.1732	1000.101	224.792	1406.648	631.339	775.309	360.307	406.547
1.2280	1000.182	223.770	1409.158	632.745	776.412	360.095	408.976
1.2822	1000.172	222.859	1411.085	633.772	777.313	359.830	410.913
1.3350	1000.141	222.140	1413.232	635.231	778.001	359.837	413.090
1.3912	1000.111	221.482	1415.144	636.515	778.629	359.826	415.033
1.4421	1000.101	220.905	1417.005	637.810	779.196	359.873	416.905
1.4993	1000.121	220.501	1418.869	639.248	779.621	360.083	418.747
1.5483	1000.050	220.014	1420.564	640.528	780.036	360.186	420.514
1.5990	1000.060	219.711	1422.404	642.054	780.349	360.492	422.344
1.6499	999.999	219.356	1423.989	643.346	780.643	360.686	423.990
1.7008	999.989	219.194	1425.803	645.009	780.795	361.132	425.814
1.7543	999.999	219.032	1427.390	646.423	780.967	361.496	427.391
1.8006	999.948	218.880	1429.071	648.003	781.068	361.921	429.123
1.8507	999.958	218.799	1430.560	649.401	781.159	362.333	430.602
1.9029	999.958	218.729	1432.263	651.033	781.230	362.830	432.305
1.9580	999.918	218.658	1433.658	652.398	781.260	363.238	433.740
2.0061	1000.070	218.618	1435.275	653.822	781.453	363.686	435.204
2.0555	1000.162	218.659	1437.058	655.554	781.503	364.291	436.896
2.1068	1000.101	218.608	1438.137	656.644	781.493	364.620	438.036
2.1583	1000.091	218.679	1439.841	658.429	781.412	365.262	439.750
2.2103	1000.070	218.699	1440.972	659.601	781.372	365.666	440.902
2.2600	1000.040	218.719	1442.373	661.052	781.321	366.163	442.333
2.3111	1000.009	218.800	1443.531	662.322	781.210	366.640	443.522
2.3645	1000.009	218.891	1444.780	663.662	781.119	367.148	444.771
2.4139	999.979	219.012	1446.213	665.246	780.967	367.757	446.234
2.4618	999.928	219.062	1447.217	666.352	780.866	368.159	447.289
2.5157	999.948	219.214	1448.677	667.943	780.734	368.791	448.729
2.5642	999.887	219.224	1449.559	668.896	780.663	369.115	449.671
2.6146	999.928	219.437	1450.890	670.399	780.491	369.758	450.962
2.6671	999.897	219.518	1451.960	671.580	780.380	370.205	452.062
2.7178	999.847	219.568	1452.873	672.595	780.278	370.577	453.027
2.7723	999.908	219.811	1454.273	674.177	780.096	371.266	454.365
2.8259	1000.060	219.782	1455.212	674.934	780.278	371.499	455.152
2.8752	1000.091	219.934	1456.477	676.320	780.157	372.063	456.387
2.9246	1000.070	220.065	1457.333	677.327	780.005	372.486	457.262
2.9779	999.999	220.115	1458.242	678.358	779.884	372.863	458.243
3.0325	999.999	220.267	1459.233	679.501	779.732	373.345	459.234
3.0806	999.999	220.378	1460.111	680.491	779.621	373.749	460.112
3.1325	999.969	220.510	1461.118	681.660	779.459	374.227	461.150
3.1829	999.969	220.550	1461.841	682.422	779.418	374.508	461.872
3.2322	999.979	220.753	1463.005	683.779	779.226	375.095	463.026
3.2788	999.918	220.844	1463.735	684.661	779.074	375.450	463.818
3.3287	999.908	220.935	1464.553	685.580	778.973	375.817	464.646
3.3819	999.897	221.086	1465.319	686.508	778.811	376.227	465.421
3.4316	999.867	221.167	1466.080	687.380	778.700	376.572	466.213
3.4854	999.857	221.339	1467.000	688.482	778.517	377.054	467.143
3.5401	999.786	221.379	1467.694	689.288	778.406	377.349	467.908
3.5895	999.836	221.511	1468.551	690.226	778.325	377.750	468.715
3.6404	1000.060	221.593	1469.539	691.072	778.467	378.086	469.478
3.6935	1000.050	221.745	1470.369	692.064	778.305	378.518	470.319
3.7448	1000.030	221.836	1471.001	692.808	778.194	378.827	470.971
3.7939	999.989	221.937	1471.659	693.607	778.052	379.160	471.670
3.8476	999.969	222.038	1472.189	694.258	777.930	379.445	472.220
3.9003	999.969	222.180	1473.009	695.220	777.789	379.860	473.041
3.9471	999.887	222.220	1473.670	696.002	777.667	380.147	473.782
4.0005	999.908	222.382	1474.257	696.731	777.526	380.498	474.349
4.0529	999.887	222.503	1475.055	697.671	777.384	380.893	475.168
4.1045	999.908	222.605	1475.490	698.188	777.303	381.132	475.583
4.1574	999.867	222.635	1476.122	698.890	777.232	381.387	476.255
4.2078	999.847	222.766	1476.557	699.476	777.080	381.670	476.710
4.2653	999.816	222.817	1477.015	700.015	776.999	381.883	477.199
4.3138	999.806	222.908	1477.661	700.763	776.898	382.193	477.855
4.3639	999.725	222.928	1478.086	701.289	776.797	382.382	478.362
4.4176	999.836	223.050	1478.845	702.058	776.787	382.719	479.008
4.4663	1000.019	223.111	1479.399	702.491	776.908	382.904	479.379
4.5197	999.989	223.182	1479.961	703.154	776.807	383.173	479.972
4.5711	999.979	223.293	1480.571	703.886	776.686	383.491	480.592
4.6227	999.938	223.384	1481.007	704.454	776.554	383.741	481.069
4.6725	999.867	223.424	1481.615	705.172	776.443	384.007	481.748
4.7250	999.908	223.536	1482.021	705.650	776.372	384.240	482.114
4.7759	999.887	223.596	1482.637	706.347	776.291	384.513	482.750
4.8305	999.877	223.667	1482.928	706.718	776.210	384.684	483.051
4.8811	999.847	223.748	1483.516	707.418	776.099	384.971	483.670
4.9363	999.816	223.819	1483.870	707.873	775.997	385.170	484.054
4.9871	999.806	223.819	1484.126	708.139	775.987	385.259	484.320
5.0385	999.786	223.879	1484.700	708.793	775.906	385.517	484.914
5.0887	999.806	223.981	1485.075	709.250	775.825	385.737	485.269
5.1409	999.796	224.112	1485.741	710.057	775.684	386.094	485.945
5.1996	999.755	224.122	1485.853	710.220	775.633	386.155	486.098
5.2507	999.887	224.153	1486.456	710.721	775.734	386.343	486.568
5.2998	999.979	224.204	1486.922	711.148	775.775	386.519	486.944
5.3485	999.938	224.234	1487.311	711.607	775.704	386.692	487.373
5.4019	999.979	224.396	1487.894	712.312	775.582	387.035	487.916
5.4513	999.918	224.396	1488.222	712.701	775.522	387.164	488.305
5.5058	999.908	224.487	1488.557	713.136	775.420	387.370	488.649
5.5567	999.836	224.497	1488.848	713.509	775.339	387.501	489.012
5.6062	999.765	224.487	1489.164	713.885	775.279	387.619	489.398
5.6634	999.806	224.588	1489.498	714.280	775.218	387.819	489.692
5.7129	999.745	224.557	1489.840	714.652	775.188	387.922	490.095
5.7676	999.775	224.669	1490.106	714.999	775.107	388.112	490.331
5.8219	999.725	224.658	1490.587	715.521	775.066	388.279	490.863
5.8750	999.745	224.790	1490.867	715.913	774.955	388.498	491.123
5.9270	999.786	224.800	1491.156	716.171	774.985	388.591	491.371
5.9788	999.969	224.892	1491.951	716.875	775.076	388.886	491.982
6.0299	999.918	224.902	1491.944	716.929	775.016	388.911	492.027
6.0847	999.887	224.912	1492.491	717.516	774.975	389.113	492.604
6.1333	999.897	224.963	1492.644	717.709	774.935	389.212	492.746
6.1840	999.867	224.973	1492.934	718.040	774.894	389.329	493.067
6.2344	999.847	225.074	1493.408	718.636	774.773	389.594	493.562
6.2857	999.796	225.053	1493.570	718.828	774.742	389.645	493.774
6.3378	999.735	225.094	1493.976	719.335	774.641	389.841	494.241
6.3893	999.745	225.175	1494.214	719.644	774.570	389.998	494.469
6.4427	999.714	225.266	1494.900	720.451	774.449	390.327	495.186
6.4958	999.704	225.276	1494.987	720.559	774.429	390.370	495.283
6.5510	999.684	225.346	1495.345	721.008	774.337	390.567	495.661
6.6022	999.704	225.417	1495.833	721.546	774.287	390.794	496.129
6.6515	999.938	225.439	1496.166	721.667	774.499	390.848	496.228
6.7037	999.867	225.519	1496.727	722.380	774.348	391.139	496.860
6.7545	999.867	225.550	1496.834	722.517	774.317	391.205	496.967
6.8057	999.847	225.651	1497.570	723.375	774.196	391.559	497.724
6.8561	999.796	225.630	1497.678	723.513	774.165	391.591	497.883
6.9102	999.775	225.671	1497.883	723.779	774.105	391.707	498.108
6.9628	999.755	225.752	1498.283	724.280	774.003	391.928	498.528
7.0116	999.745	225.741	1498.457	724.453	774.003	391.979	498.712
7.0650	999.725	225.853	1499.040	725.168	773.872	392.291	499.315
7.1162	999.725	225.853	1499.157	725.285	773.872	392.330	499.433
7.1723	999.694	225.933	1499.611	725.850	773.761	392.572	499.917
7.2247	999.694	225.974	1499.705	725.985	773.720	392.644	500.011
7.2800	999.684	225.984	1499.943	726.243	773.700	392.737	500.259
7.3335	999.897	226.086	1500.686	726.875	773.811	393.016	500.788
7.3830	999.857	226.076	1500.804	727.023	773.781	393.058	500.947
7.4346	999.836	226.126	1501.203	727.493	773.710	393.248	501.366
7.4850	999.826	226.147	1501.430	727.751	773.680	393.348	501.604
7.5391	999.826	226.238	1501.749	728.161	773.589	393.545	501.923
7.5899	999.786	226.248	1501.977	728.439	773.538	393.645	502.192
7.6397	999.755	226.268	1502.390	728.903	773.487	393.813	502.635
7.6937	999.664	226.348	1502.582	729.267	773.315	393.988	502.919
7.7440	999.725	226.389	1502.913	729.577	773.335	394.118	503.188
7.7959	999.704	226.450	1503.305	730.051	773.255	394.317	503.601
7.8446	999.745	226.592	1503.758	730.605	773.153	394.596	504.013
7.8949	999.714	226.652	1504.130	731.068	773.062	394.791	504.416
7.9414	999.694	226.713	1504.381	731.400	772.981	394.942	504.687
7.9977	999.633	226.702	1504.807	731.876	772.931	395.094	505.174
8.0547	999.918	226.775	1505.201	732.058	773.143	395.202	505.284
8.1050	999.826	226.754	1505.307	732.235	773.072	395.248	505.481
8.1550	999.887	226.896	1505.719	732.727	772.991	395.506	505.831
8.2087	999.877	226.977	1506.038	733.137	772.900	395.697	506.160
8.2592	999.847	227.058	1506.590	733.801	772.789	395.972	506.743
8.3113	999.836	227.078	1506.478	733.719	772.759	395.958	506.641
8.3629	999.816	227.118	1507.133	734.435	772.698	396.224	507.317
8.4133	999.775	227.148	1507.218	734.591	772.627	396.296	507.443
8.4683	999.725	227.199	1507.503	734.977	772.526	396.458	507.778
8.5208	999.735	227.270	1507.979	735.514	772.465	396.685	508.245
8.5758	999.745	227.351	1508.222	735.828	772.394	396.843	508.477
8.6283	999.684	227.371	1508.508	736.195	772.313	396.979	508.824
8.6821	999.704	227.421	1508.598	736.316	772.283	397.053	508.894
8.7307	999.694	227.563	1509.342	737.211	772.131	397.446	509.648
8.7805	999.674	227.563	1509.480	737.369	772.111	397.498	509.806
8.8292	999.653	227.593	1509.691	737.631	772.060	397.606	510.038
8.8812	999.633	227.664	1510.135	738.166	771.969	397.831	510.502
8.9319	999.816	227.645	1510.453	738.281	772.172	397.857	510.637
8.9829	999.857	227.756	1511.045	738.944	772.101	398.152	511.188
9.0391	999.806	227.766	1511.197	739.157	772.040	398.230	511.391
9.0880	999.806	227.897	1511.725	739.817	771.908	398.537	511.919
9.1392	999.775	227.958	1511.875	740.058	771.817	398.658	512.100
9.1911	999.765	227.978	1512.190	740.403	771.787	398.787	512.425
9.2472	999.725	228.039	1512.601	740.916	771.686	398.998	512.877
9.2962	999.735	228.100	1512.752	741.117	771.635	399.105	513.017
9.3480	999.694	228.170	1513.186	741.662	771.524	399.334	513.492
9.3972	999.694	228.221	1513.324	741.851	771.473	399.431	513.630
9.4490	999.653	228.322	1513.839	742.508	771.332	399.717	514.186
9.5033	999.572	228.342	1514.049	742.819	771.230	399.834	514.477
9.5515	999.623	228.443	1514.459	743.279	771.180	400.055	514.836
9.6028	999.613	228.544	1514.855	743.787	771.068	400.292	515.243
9.6563	999.826	228.586	1515.396	744.155	771.240	400.442	515.569
9.7051	999.745	228.535	1515.601	744.391	771.210	400.487	515.856
9.7585	999.796	228.717	1516.111	745.032	771.079	400.822	516.315
9.8098	999.806	228.818	1516.408	745.421	770.987	401.019	516.602
9.8583	999.786	228.889	1516.657	745.761	770.896	401.180	516.872
9.9104	999.725	228.848	1517.094	746.218	770.876	401.305	517.369
9.9625	999.694	228.929	1517.162	746.397	770.765	401.419	517.468
10.0123	999.674	228.970	1517.567	746.863	770.704	401.601	517.893
10.0625	999.714	229.101	1517.815	747.203	770.613	401.802	518.101
10.1096	999.664	229.142	1518.238	747.716	770.522	402.000	518.574
10.1643	999.643	229.223	1518.613	748.192	770.421	402.212	518.969
10.2216	999.643	229.253	1518.745	748.354	770.390	402.287	519.101
10.2721	999.653	229.374	1519.338	749.059	770.279	402.603	519.685
10.3212	999.603	229.394	1519.398	749.190	770.208	402.660	519.796
10.3738	999.511	229.455	1519.844	749.787	770.056	402.899	520.333
10.4254	999.613	229.607	1520.140	750.134	770.006	403.116	520.527
10.4751	999.552	229.617	1520.334	750.399	769.935	403.211	520.782
10.5274	999.765	229.719	1521.017	750.971	770.046	403.470	521.252
10.5807	999.796	229.780	1521.330	751.314	770.016	403.625	521.534
10.6329	999.755	229.851	1521.725	751.820	769.904	403.840	521.970
10.6812	999.674	229.820	1521.772	751.918	769.854	403.853	522.098
10.7296	999.745	230.002	1522.333	752.590	769.743	404.198	522.588
10.7816	999.714	230.053	1522.573	752.911	769.662	404.339	522.858
10.8359	999.674	230.073	1522.673	753.072	769.601	404.406	522.999
10.8858	999.684	230.164	1523.161	753.641	769.520	404.656	523.477
10.9337	999.684	230.194	1523.323	753.833	769.490	404.741	523.639
10.9830	999.623	230.235	1523.692	754.304	769.388	404.924	524.069
11.0348	999.653	230.326	1523.893	754.565	769.328	405.072	524.240
11.0864	999.552	230.335	1524.289	755.073	769.216	405.248	524.737
11.1391	999.623	230.518	1524.752	755.648	769.105	405.561	525.130
11.1936	999.623	230.569	1524.937	755.883	769.054	405.673	525.314
11.2443	999.552	230.649	1525.268	756.365	768.902	405.888	525.716
11.2950	999.542	230.710	1525.545	756.714	768.832	406.045	526.004
11.3564	999.491	230.791	1525.881	757.181	768.700	406.254	526.390
11.4135	999.623	230.852	1526.179	757.408	768.771	406.371	526.556
11.4621	999.765	230.944	1526.717	757.895	768.822	406.594	526.952
11.5146	999.694	230.974	1526.887	758.167	768.720	406.705	527.193
11.5660	999.684	231.014	1527.059	758.390	768.670	406.806	527.375
11.6164	999.694	231.126	1527.403	758.834	768.568	407.028	527.709
11.6724	999.664	231.196	1527.705	759.237	768.467	407.210	528.041
11.7245	999.704	231.328	1528.100	759.724	768.376	407.460	528.396
11.7750	999.643	231.378	1528.516	760.251	768.265	407.669	528.873
11.8257	999.613	231.469	1528.895	760.752	768.143	407.897	529.283
11.8773	999.613	231.560	1529.105	761.052	768.052	408.058	529.492
11.9293	999.572	231.580	1529.465	761.473	767.992	408.211	529.893
11.9779	999.653	231.753	1529.707	761.807	767.901	408.437	530.054
12.0274	999.521	231.722	1530.038	762.238	767.799	408.561	530.517
12.0796	999.521	231.833	1530.452	762.764	767.688	408.810	530.930
12.1343	999.542	231.935	1530.546	762.939	767.607	408.936	531.004
12.1895	999.501	232.005	1531.109	763.613	767.496	409.208	531.608
12.2438	999.491	232.086	1531.157	763.753	767.405	409.308	531.667
12.2965	999.511	232.157	1531.569	764.215	767.354	409.510	532.058
12.3477	999.674	232.198	1532.066	764.590	767.475	409.662	532.392
12.4011	999.745	232.431	1532.506	765.192	767.313	410.018	532.761
12.4525	999.684	232.441	1532.857	765.615	767.243	410.166	533.173
12.5059	999.684	232.532	1533.063	765.912	767.152	410.325	533.379
12.5605	999.633	232.623	1533.630	766.620	767.010	410.622	533.997
12.6120	999.633	232.704	1533.669	766.740	766.929	410.716	534.035
12.6610	999.582	232.835	1534.251	767.504	766.747	411.058	534.668
12.7140	999.603	232.977	1534.541	767.916	766.625	411.290	534.939
12.7645	999.592	233.058	1534.831	768.297	766.534	411.471	535.239
12.8167	999.562	233.179	1535.427	769.045	766.382	411.801	535.865
12.8643	999.531	233.220	1535.569	769.258	766.312	411.899	536.038
12.9172	999.481	233.321	1536.090	769.930	766.160	412.191	536.610
12.9680	999.552	233.453	1536.265	770.166	766.099	412.357	536.713
13.0252	999.460	233.503	1536.605	770.648	765.957	412.551	537.145
13.0802	999.450	233.614	1536.831	770.995	765.836	412.741	537.381
13.1304	999.470	233.715	1537.149	771.394	765.755	412.942	537.678
13.1787	999.470	233.867	1537.585	771.982	765.603	413.239	538.114
13.2284	999.725	233.919	1538.058	772.252	765.805	413.364	538.333
13.2845	999.643	233.990	1538.506	772.853	765.654	413.611	538.863
13.3417	999.643	234.060	1538.533	772.950	765.583	413.690	538.890
13.3970	999.653	234.233	1539.156	773.735	765.421	414.067	539.502
13.4460	999.562	234.273	1539.348	774.059	765.289	414.201	539.786
13.4994	999.653	234.415	1539.712	774.473	765.239	414.434	540.059
13.5468	999.592	234.536	1540.182	775.126	765.057	414.733	540.590
13.6017	999.542	234.566	1540.361	775.385	764.976	414.839	540.819
13.6490	999.481	234.586	1540.512	775.617	764.895	414.930	541.031
13.7002	999.592	234.789	1541.050	776.246	764.803	415.275	541.457
13.7477	999.542	234.880	1541.542	776.880	764.662	415.547	542.000
13.8007	999.531	234.991	1541.802	777.262	764.540	415.748	542.271
13.8505	999.491	235.082	1542.208	777.800	764.409	415.988	542.718
13.9019	999.470	235.092	1542.308	777.930	764.378	416.038	542.838
13.9524	999.430	235.233	1542.725	778.529	764.196	416.332	543.296
14.0068	999.409	235.335	1542.979	778.904	764.075	416.524	543.569
14.0556	999.379	235.395	1543.209	779.225	763.984	416.672	543.830
14.1121	999.633	235.609	1544.007	779.983	764.024	417.067	544.374
14.1606	999.572	235.548	1543.986	779.962	764.024	417.019	544.414
14.2160	999.603	235.700	1544.533	780.631	763.903	417.343	544.931
14.2696	999.582	235.811	1544.646	780.874	763.771	417.499	545.063
14.3187	999.592	235.912	1544.990	781.310	763.680	417.712	545.398
14.3713	999.572	236.084	1545.423	781.936	763.488	418.035	545.851
14.4235	999.542	236.145	1545.595	782.198	763.397	418.163	546.054
14.4715	999.542	236.287	1546.186	782.931	763.255	418.501	546.644
14.5181	999.521	236.347	1546.324	783.150	763.174	418.615	546.803
14.5750	999.542	236.550	1546.735	783.743	762.992	418.948	547.193
14.6257	999.491	236.590	1546.972	784.072	762.901	419.084	547.482
14.6827	999.460	236.691	1547.220	784.451	762.769	419.278	547.760
14.7370	999.399	236.751	1547.422	784.775	762.648	419.426	548.023
14.7814	999.470	236.944	1547.742	785.215	762.526	419.701	548.271
14.8319	999.430	237.075	1548.395	786.041	762.354	420.064	548.965
14.8845	999.379	237.106	1548.396	786.123	762.273	420.111	549.018
14.9353	999.409	237.288	1548.914	786.792	762.121	420.456	549.504
14.9829	999.470	237.319	1549.293	787.141	762.152	420.593	549.822
15.0357	999.613	237.431	1549.641	787.459	762.182	420.773	550.028
15.0869	999.552	237.521	1549.889	787.859	762.030	420.967	550.337
15.1312	999.572	237.623	1550.263	788.314	761.949	421.186	550.691
15.1878	999.603	237.825	1550.644	788.866	761.777	421.506	551.041
15.2428	999.542	237.855	1550.850	789.164	761.686	421.625	551.308
15.2945	999.572	237.997	1551.276	789.701	761.575	421.899	551.704
15.3422	999.531	238.088	1551.517	790.074	761.443	422.083	551.986
15.3903	999.521	238.209	1551.972	790.660	761.312	422.360	552.450
